Supplementary text for Orton et al. 2014. Mid-Infrared Spectroscopy of Uranus from the
Spitzer Infared Spectrometer: 1. Determination of the Mean Temperature Structure of the
Upper Troposphere and Stratosphere.

wl=wavelength (micrometers)
wn=wavenumber (cm-1)
rad=radiance (W cm-1 sr-1 (cm-1)-1); sigma = 1 standard deviation)
Tb=brightness temperature (K); sigma = 1 standard deviation)


Short-Low1 spectrum

    wl      wn         rad        sigma(rad)     Tb      sigma(Tb)    
   7.46    1341.35    9.698e-06    1.011e-06     88.49     0.42
   7.52    1330.56    1.303e-05    9.547e-07     89.08     0.30
   7.58    1319.94    1.467e-05    6.627e-07     88.96     0.19
   7.64    1309.48    2.315e-05    1.156e-06     90.29     0.22
   7.70    1299.19    2.219e-05    1.086e-06     89.50     0.21
   7.76    1289.06    1.489e-05    6.237e-07     87.23     0.17
   7.82    1279.09    1.264e-05    4.483e-07     85.99     0.14
   7.88    1269.27    1.122e-05    5.493e-07     84.95     0.19
   7.94    1259.60    9.035e-06    3.758e-07     83.55     0.16
   8.00    1250.08    8.888e-06    2.749e-07     82.94     0.12
   8.06    1240.70    6.546e-06    1.901e-07     81.26     0.11
   8.12    1231.46    3.009e-06    1.512e-07     77.97     0.17
   8.18    1222.35    2.543e-06    2.255e-07     76.90     0.30
   8.24    1213.38    2.981e-06    1.643e-07     76.95     0.19
   8.30    1204.54    2.746e-06    2.448e-07     76.18     0.30
   8.36    1195.83    4.211e-06    1.151e-06     77.16     0.97
   8.42    1187.24    3.588e-07    6.302e-07     69.04     1.20 *revisit by hand
   8.48    1178.78    1.274e-06    2.672e-07     72.32     0.66
   8.54    1170.43    1.814e-06    1.137e-07     72.97     0.20
   8.60    1162.20    2.391e-06    1.884e-07     73.41     0.25
   8.66    1154.09    3.120e-06    2.050e-07     73.82     0.22
   8.73    1146.09    4.532e-06    1.388e-07     74.62     0.10
   8.79    1138.20    6.887e-06    2.960e-07     75.61     0.15
   8.85    1130.42    9.681e-06    2.424e-07     76.37     0.09
   8.91    1122.74    1.472e-05    1.157e-07     77.45     0.03
   8.97    1115.17    2.401e-05    1.999e-07     78.85     0.03
   9.03    1107.70    3.649e-05    1.462e-07     80.05     0.02
   9.09    1100.33    5.051e-05    1.462e-07     80.92     0.01
   9.15    1093.05    6.199e-05    3.460e-07     81.32     0.02
   9.21    1085.87    6.978e-05    6.172e-07     81.36     0.04
   9.27    1078.79    7.395e-05    8.427e-07     81.16     0.05
   9.33    1071.79    7.353e-05    8.514e-07     80.69     0.05
   9.39    1064.89    7.131e-05    9.020e-07     80.12     0.05
   9.45    1058.08    6.812e-05    1.009e-06     79.50     0.06
   9.51    1051.35    6.405e-05    9.007e-07     78.82     0.06
   9.57    1044.71    6.335e-05    7.329e-07     78.36     0.05
   9.63    1038.15    8.734e-05    7.582e-07     79.27     0.04
   9.69    1031.67    8.139e-05    2.104e-06     78.56     0.11
   9.75    1025.27    5.212e-05    6.425e-07     76.35     0.05
   9.81    1018.95    3.980e-05    1.960e-07     74.90     0.02
   9.87    1012.71    3.557e-05    7.491e-07     74.09     0.08
   9.94    1006.54    3.049e-05    2.978e-07     73.13     0.04
  10.00    1000.45    2.805e-05    6.638e-07     72.45     0.09
  10.06     994.43    2.413e-05    3.937e-07     71.54     0.06
  10.12     988.49    2.161e-05    3.687e-07     70.78     0.06
  10.18     982.62    1.943e-05    2.931e-07     70.06     0.05
  10.24     976.81    1.795e-05    1.741e-07     69.43     0.03
  10.30     971.07    1.714e-05    2.636e-07     68.92     0.05
  10.36     965.40    1.550e-05    1.124e-07     68.24     0.02
  10.42     959.80    1.493e-05    1.832e-07     67.78     0.04
  10.48     954.26    1.577e-05    2.106e-07     67.63     0.04
  10.54     948.78    1.621e-05    2.448e-07     67.39     0.05
  10.60     943.37    1.661e-05    2.709e-07     67.14     0.05
  10.66     938.02    1.823e-05    2.676e-07     67.13     0.05
  10.72     932.72    1.936e-05    2.200e-07     67.00     0.04
  10.78     927.50    2.119e-05    1.960e-07     66.99     0.03
  10.84     922.32    2.248e-05    2.427e-07     66.87     0.04
  10.90     917.20    2.482e-05    1.802e-07     66.89     0.02
  10.96     912.14    2.722e-05    1.953e-07     66.89     0.02
  11.02     907.14    2.900e-05    3.209e-07     66.79     0.04
  11.08     902.18    3.042e-05    2.688e-07     66.65     0.03
  11.14     897.29    3.149e-05    1.584e-07     66.46     0.02
  11.21     892.45    3.161e-05    4.151e-07     66.17     0.04
  11.27     887.66    3.182e-05    3.725e-07     65.89     0.04
  11.33     882.92    3.284e-05    1.089e-07     65.70     0.01
  11.39     878.22    3.323e-05    4.268e-07     65.45     0.04
  11.45     873.58    3.373e-05    4.736e-07     65.20     0.05
  11.51     868.99    3.537e-05    5.014e-07     65.07     0.05
  11.57     864.45    3.859e-05    3.387e-07     65.08     0.03
  11.63     859.96    4.154e-05    5.299e-07     65.05     0.04
  11.69     855.51    4.555e-05    6.866e-07     65.08     0.05
  11.75     851.10    5.140e-05    9.029e-07     65.21     0.06
  11.81     846.74    5.777e-05    1.162e-06     65.34     0.07
  11.87     842.42    6.388e-05    1.169e-06     65.41     0.06
  11.93     838.16    6.973e-05    1.727e-06     65.45     0.09
  11.99     833.93    7.787e-05    1.753e-06     65.56     0.08
  12.05     829.74    8.622e-05    1.833e-06     65.65     0.08
  12.11     825.60    9.556e-05    2.369e-06     65.75     0.09
  12.17     821.50    1.008e-04    2.391e-06     65.67     0.09
  12.23     817.43    1.207e-04    2.753e-06     66.06     0.08
  12.29     813.42    1.227e-04    3.337e-06     65.86     0.10
  12.35     809.43    9.216e-05    2.284e-06     64.55     0.09
  12.41     805.49    7.639e-05    2.472e-06     63.62     0.11
  12.48     801.58    6.826e-05    1.777e-06     62.98     0.09
  12.54     797.72    6.209e-05    1.537e-06     62.40     0.08
  12.60     793.88    5.844e-05    1.373e-06     61.94     0.08
  12.66     790.09    5.743e-05    1.325e-06     61.64     0.08
  12.72     786.34    6.422e-05    1.933e-06     61.77     0.10
  12.78     782.61    8.007e-05    2.057e-06     62.27     0.09
  12.84     778.92    1.069e-04    2.751e-06     63.04     0.09
  12.90     775.27    1.599e-04    4.327e-06     64.25     0.10
  12.96     771.65    2.427e-04    6.576e-06     65.58     0.10
  13.02     768.07    3.315e-04    8.179e-06     66.55     0.10
  13.08     764.52    4.160e-04    9.886e-06     67.22     0.10
  13.14     761.00    5.486e-04    1.148e-05     68.12     0.09
  13.20     757.51    6.766e-04    1.327e-05     68.76     0.09
  13.26     754.06    7.402e-04    1.735e-05     68.90     0.10
  13.32     750.63    8.722e-04    1.659e-05     69.37     0.08
  13.38     747.24    9.941e-04    1.962e-05     69.70     0.09
  13.44     743.88    1.049e-03    2.201e-05     69.69     0.10
  13.50     740.55    1.122e-03    2.167e-05     69.75     0.09
  13.56     737.25    1.275e-03    2.357e-05     70.08     0.09
  13.62     733.97    2.198e-03    4.993e-05     72.44     0.11
  13.69     730.73    4.983e-03    1.618e-04     76.49     0.18
  13.75     727.51    4.435e-03    1.917e-04     75.58     0.24
  13.81     724.33    1.449e-03    4.237e-05     69.69     0.14
  13.87     721.17    9.206e-04    1.871e-05     67.40     0.09
  13.93     718.03    9.864e-04    1.940e-05     67.47     0.09
  13.99     714.93    1.030e-03    1.948e-05     67.42     0.08
  14.05     711.85    1.001e-03    2.121e-05     67.06     0.09
 
 Short-Low2 spectrum

    wl      wn         rad        sigma(rad)     Tb      sigma(Tb)    
   5.13    1950.64    8.565e-07    3.184e-07    110.67     1.69
   5.16    1939.20    4.786e-06    1.354e-06    118.12     1.45
   5.19    1927.90    2.603e-06    3.501e-07    114.56     0.64
   5.22    1916.72    3.319e-06    1.818e-07    115.13     0.26
   5.25    1905.67    3.559e-06    1.442e-07    114.89     0.20
   5.28    1894.75    3.798e-06    3.219e-07    114.62     0.41
   5.31    1883.96    2.217e-06    1.333e-06    111.53     3.13
   5.34    1873.29    3.323e-06    2.879e-07    112.85     0.41
   5.37    1862.73    3.422e-06    2.400e-07    112.44     0.33
   5.40    1852.30    3.327e-06    3.440e-07    111.75     0.49
   5.43    1841.98    3.803e-06    8.069e-08    111.84     0.10
   5.46    1831.78    2.958e-06    3.332e-07    110.13     0.52
   5.49    1821.69    2.486e-06    2.995e-07    108.81     0.55
   5.52    1811.70    2.781e-06    2.668e-07    108.79     0.44
   5.55    1801.83    3.158e-06    2.639e-07    108.85     0.38
   5.58    1792.07    2.844e-06    3.831e-07    107.86     0.61
   5.61    1782.41    2.559e-06    2.970e-07    106.88     0.52
   5.64    1772.85    2.208e-06    3.504e-07    105.73     0.70
   5.67    1763.39    1.896e-06    1.754e-07    104.57     0.40
   5.70    1754.04    2.114e-06    1.529e-07    104.55     0.31
   5.73    1744.79    2.303e-06    1.326e-07    104.44     0.25
   5.76    1735.63    2.689e-06    3.251e-07    104.64     0.53
   5.79    1726.57    2.674e-06    1.485e-07    104.14     0.24
   5.82    1717.60    3.237e-06    2.885e-07    104.50     0.39
   5.85    1708.72    3.047e-06    3.121e-07    103.76     0.45
   5.88    1699.94    3.430e-06    2.322e-07    103.82     0.30
   5.91    1691.24    3.651e-06    1.219e-07    103.63     0.15
   5.94    1682.64    3.508e-06    2.329e-07    102.99     0.29
   5.97    1674.12    2.600e-06    2.940e-07    101.25     0.48
   6.00    1665.68    2.077e-06    4.303e-07     99.86     0.87
   6.03    1657.34    3.290e-06    2.733e-07    101.36     0.36
   6.06    1649.07    3.607e-06    2.006e-07    101.32     0.24
   6.09    1640.89    2.854e-06    3.795e-07     99.88     0.56
   6.12    1632.78    2.906e-06    1.955e-07     99.52     0.28
   6.15    1624.76    3.071e-06    2.775e-07     99.33     0.38
   6.18    1616.82    3.118e-06    5.319e-07     98.97     0.72
   6.22    1608.95    2.066e-06    1.879e-07     96.85     0.37
   6.25    1601.16    1.637e-06    2.681e-07     95.51     0.65
   6.28    1593.44    2.145e-06    3.821e-07     96.19     0.73
   6.31    1585.80    2.675e-06    3.496e-07     96.68     0.54
   6.34    1578.23    3.062e-06    2.140e-07     96.83     0.29
   6.37    1570.74    3.631e-06    2.320e-07     97.14     0.27
   6.40    1563.31    3.469e-06    1.041e-06     96.55     1.28
   6.43    1555.95    3.161e-06    1.207e-06     95.77     1.64
   6.46    1548.67    2.916e-06    6.817e-07     95.05     0.96
   6.49    1541.45    3.747e-06    1.038e-06     95.69     1.17
   6.52    1534.30    5.200e-06    3.199e-07     96.67     0.26
   6.55    1527.21    4.440e-06    2.758e-07     95.62     0.26
   6.58    1520.19    5.332e-06    3.151e-07     96.00     0.25
   6.61    1513.23    4.866e-06    4.316e-07     95.24     0.37
   6.64    1506.34    5.412e-06    4.119e-07     95.30     0.32
   6.67    1499.51    4.492e-06    3.642e-07     94.16     0.33
   6.70    1492.74    3.856e-06    2.282e-07     93.17     0.24
   6.73    1486.03    3.599e-06    1.202e-07     92.52     0.13
   6.76    1479.38    2.922e-06    3.152e-07     91.34     0.42
   6.79    1472.79    3.693e-06    3.575e-07     91.91     0.39
   6.82    1466.26    3.436e-06    3.895e-07     91.27     0.45
   6.85    1459.79    4.422e-06    2.611e-07     91.92     0.24
   6.88    1453.37    5.625e-06    6.398e-07     92.55     0.47
   6.91    1447.01    7.276e-06    8.454e-07     93.26     0.49
   6.94    1440.71    4.810e-06    3.474e-07     91.22     0.29
   6.97    1434.46    3.175e-06    2.571e-07     89.24     0.31
   7.00    1428.26    2.296e-06    2.000e-07     87.67     0.33
   7.03    1422.12    2.887e-06    5.631e-07     88.21     0.75
   7.06    1416.03    2.696e-06    4.749e-07     87.62     0.67
   7.09    1409.99    1.647e-06    2.720e-07     85.48     0.60
   7.12    1404.00    2.668e-06    4.072e-07     86.93     0.57
   7.15    1398.07    3.852e-06    5.384e-07     88.00     0.54
   7.18    1392.18    4.091e-06    4.469e-07     87.91     0.42
   7.21    1386.34    3.203e-06    2.591e-07     86.66     0.31
   7.24    1380.56    3.037e-06    4.046e-07     86.15     0.50
   7.27    1374.82    3.367e-06    3.573e-07     86.22     0.40
   7.30    1369.12    4.125e-06    3.547e-07     86.68     0.33
   7.33    1363.48    5.178e-06    5.039e-07     87.24     0.38
   7.36    1357.88    4.598e-06    8.905e-07     86.48     0.75
   7.39    1352.33    7.631e-06    6.990e-07     88.15     0.37
   7.42    1346.82    1.188e-05    9.676e-07     89.63     0.34
   7.46    1341.35    1.321e-05    7.178e-07     89.76     0.23
   7.49    1335.93    1.370e-05    7.448e-07     89.60     0.23
   7.52    1330.56    1.385e-05    8.997e-07     89.34     0.27
 
 Short-Low Bonus spectrum
 
    wl      wn         rad        sigma(rad)     Tb      sigma(Tb)    
   6.88    1453.37    5.625e-06    6.398e-07     92.55     0.47
   6.91    1447.01    7.276e-06    8.454e-07     93.26     0.49
   6.94    1440.71    4.810e-06    3.474e-07     91.22     0.29
   6.97    1434.46    3.175e-06    2.571e-07     89.24     0.31
   7.00    1428.26    2.296e-06    2.000e-07     87.67     0.33
   7.03    1422.12    2.887e-06    5.631e-07     88.21     0.75
   7.06    1416.03    2.696e-06    4.749e-07     87.62     0.67
   7.09    1409.99    1.647e-06    2.720e-07     85.48     0.60
   7.12    1404.00    2.668e-06    4.072e-07     86.93     0.57
   7.15    1398.07    3.852e-06    5.384e-07     88.00     0.54
   7.18    1392.18    4.091e-06    4.469e-07     87.91     0.42
   7.21    1386.34    3.203e-06    2.591e-07     86.66     0.31
   7.24    1380.56    3.037e-06    4.046e-07     86.15     0.50
   7.27    1374.82    3.367e-06    3.573e-07     86.22     0.40
   7.30    1369.12    4.125e-06    3.547e-07     86.68     0.33
   7.33    1363.48    5.178e-06    5.039e-07     87.24     0.38
   7.36    1357.88    4.598e-06    8.905e-07     86.48     0.75
   7.39    1352.33    7.631e-06    6.990e-07     88.15     0.37
   7.42    1346.82    1.188e-05    9.676e-07     89.63     0.34
   7.46    1341.35    1.321e-05    7.178e-07     89.76     0.23
   7.49    1335.93    1.370e-05    7.448e-07     89.60     0.23
   7.52    1330.56    1.385e-05    8.997e-07     89.34     0.27
 
 Long-Low spectrum

    wl      wn         rad        sigma(rad)     Tb      sigma(Tb)    
  13.98     715.07    1.109e-03    4.880e-05     67.76     0.20
  14.07     710.77    1.090e-03    6.432e-05     67.36     0.26
  14.15     706.51    1.082e-03    6.782e-05     67.00     0.28
  14.24     702.31    9.824e-04    7.079e-05     66.26     0.31
  14.32     698.16    8.238e-04    6.884e-05     65.19     0.35
  14.41     694.06    6.614e-04    5.991e-05     63.97     0.37
  14.49     690.00    4.986e-04    4.872e-05     62.53     0.39
  14.58     685.99    3.564e-04    3.674e-05     60.95     0.39
  14.66     682.03    2.466e-04    2.108e-05     59.31     0.31
  14.75     678.11    1.757e-04    9.778e-06     57.85     0.19
  14.83     674.24    1.408e-04    5.259e-06     56.83     0.12
  14.92     670.42    1.363e-04    5.689e-06     56.45     0.14
  15.00     666.63    1.458e-04    4.976e-06     56.41     0.11
  15.09     662.89    1.394e-04    5.683e-06     56.00     0.13
  15.17     659.19    1.483e-04    5.798e-06     55.95     0.13
  15.25     655.53    1.567e-04    6.594e-06     55.88     0.14
  15.34     651.91    1.583e-04    1.087e-05     55.66     0.23
  15.42     648.33    1.772e-04    5.418e-06     55.78     0.10
  15.51     644.79    1.967e-04    6.965e-06     55.88     0.12
  15.59     641.29    2.192e-04    8.474e-06     56.00     0.13
  15.68     637.83    2.512e-04    9.172e-06     56.21     0.13
  15.76     634.40    2.932e-04    9.651e-06     56.50     0.12
  15.85     631.01    3.325e-04    7.939e-06     56.70     0.08
  15.93     627.66    3.443e-04    9.081e-06     56.58     0.09
  16.02     624.34    3.332e-04    6.712e-06     56.22     0.07
  16.10     621.06    3.320e-04    7.235e-06     55.97     0.08
  16.19     617.81    3.478e-04    1.108e-05     55.89     0.11
  16.27     614.59    3.598e-04    3.592e-06     55.77     0.04
  16.36     611.41    3.753e-04    7.524e-06     55.69     0.07
  16.44     608.26    4.015e-04    1.127e-05     55.69     0.10
  16.52     605.14    4.267e-04    1.186e-05     55.68     0.10
  16.61     602.06    4.536e-04    1.167e-05     55.67     0.09
  16.69     599.01    4.772e-04    9.156e-06     55.62     0.07
  16.78     595.98    5.037e-04    1.022e-05     55.59     0.07
  16.86     592.99    5.394e-04    1.561e-05     55.61     0.10
  16.95     590.03    6.723e-04    6.320e-05     56.19     0.35
  17.03     587.09    9.540e-04    2.208e-05     57.30     0.09
  17.12     584.19    8.024e-04    3.232e-05     56.41     0.15
  17.20     581.31    6.425e-04    1.186e-05     55.36     0.07
  17.29     578.47    6.521e-04    1.283e-05     55.20     0.07
  17.37     575.65    6.744e-04    1.190e-05     55.11     0.06
  17.46     572.85    6.984e-04    1.193e-05     55.02     0.06
  17.54     570.09    7.286e-04    1.364e-05     54.96     0.07
  17.63     567.35    7.606e-04    1.348e-05     54.91     0.07
  17.71     564.64    7.926e-04    1.549e-05     54.85     0.07
  17.80     561.95    8.072e-04    2.934e-05     54.71     0.13
  17.88     559.29    8.283e-04    3.974e-05     54.60     0.18
  17.96     556.65    8.916e-04    1.273e-05     54.67     0.05
  18.05     554.04    9.271e-04    1.622e-05     54.61     0.07
  18.13     551.46    9.695e-04    1.870e-05     54.58     0.07
  18.22     548.89    1.017e-03    1.878e-05     54.55     0.07
  18.30     546.35    1.064e-03    1.866e-05     54.52     0.07
  18.39     543.84    1.120e-03    1.308e-05     54.52     0.04
  18.47     541.34    1.174e-03    1.660e-05     54.50     0.05
  18.56     538.87    1.230e-03    2.023e-05     54.48     0.06
  18.64     536.43    1.288e-03    2.506e-05     54.46     0.07
  18.73     534.00    1.338e-03    2.755e-05     54.42     0.08
  18.81     531.60    1.406e-03    2.625e-05     54.41     0.07
  18.90     529.21    1.480e-03    2.532e-05     54.42     0.07
  18.98     526.85    1.542e-03    3.400e-05     54.39     0.09
  19.07     524.51    1.611e-03    3.545e-05     54.37     0.09
  19.15     522.19    1.678e-03    2.592e-05     54.34     0.06
  19.23     519.90    1.741e-03    1.973e-05     54.30     0.04
  19.32     517.62    1.824e-03    2.097e-05     54.30     0.05
  19.40     515.36    1.892e-03    2.971e-05     54.26     0.06
  19.49     513.12    1.940e-03    2.582e-05     54.17     0.05
  19.57     510.90    2.062e-03    3.502e-05     54.23     0.07
  19.66     508.70    2.154e-03    4.534e-05     54.22     0.08
  19.74     506.52    2.224e-03    2.773e-05     54.17     0.05
  19.83     504.35    2.295e-03    2.051e-05     54.12     0.04
  19.91     502.21    2.393e-03    3.841e-05     54.11     0.07
  20.00     500.08    2.499e-03    3.787e-05     54.11     0.06
  20.08     497.97    2.587e-03    3.165e-05     54.07     0.05
  20.17     495.88    2.675e-03    2.670e-05     54.03     0.04
  20.25     493.81    2.778e-03    3.914e-05     54.01     0.06
  20.34     491.75    2.866e-03    3.568e-05     53.97     0.05
  20.42     489.71    2.971e-03    4.149e-05     53.94     0.06
  20.50     487.69    3.069e-03    3.994e-05     53.90     0.05
  20.59     485.68    3.221e-03    4.450e-05     53.93     0.06
  20.76     481.72    3.485e-03    5.927e-05     53.92     0.07
  20.93     477.83    3.649e-03    5.294e-05     53.78     0.06
  21.10     473.99    3.914e-03    7.297e-05     53.75     0.08
  21.27     470.21    4.268e-03    4.483e-05     53.79     0.04
  21.44     466.50    4.873e-03    5.594e-05     54.03     0.05
 
 Short-High Spectrum
 order  wl        wn         rad        sigma(rad)     Tb      sigma(Tb)    
   11  17.75     563.30    7.980e-04    2.423e-05     54.77     0.11
   11  17.77     562.86    7.979e-04    1.875e-05     54.74     0.09
   11  17.79     562.00    8.253e-04    2.151e-05     54.80     0.10
   11  17.81     561.57    8.346e-04    2.323e-05     54.81     0.10
   11  17.82     561.14    8.390e-04    2.180e-05     54.79     0.10
   11  17.83     560.71    8.485e-04    1.396e-05     54.80     0.06
   11  17.85     560.27    8.581e-04    2.025e-05     54.81     0.09
   11  17.86     559.84    8.494e-04    2.331e-05     54.74     0.10
   11  17.88     559.41    8.565e-04    2.136e-05     54.73     0.09
   11  17.89     558.98    8.693e-04    2.384e-05     54.76     0.10
   11  17.93     557.69    8.784e-04    2.076e-05     54.69     0.09
   11  17.94     557.27    8.807e-04    1.772e-05     54.67     0.08
   11  17.96     556.83    8.902e-04    1.796e-05     54.68     0.08
   11  17.97     556.41    9.044e-04    9.899e-06     54.70     0.04
   11  17.99     555.98    9.151e-04    1.202e-05     54.71     0.05
   11  18.00     555.55    9.113e-04    2.100e-05     54.66     0.09
   11  18.01     555.12    9.090e-04    2.452e-05     54.62     0.10
   11  18.03     554.70    9.159e-04    2.322e-05     54.62     0.09
   11  18.07     553.42    9.426e-04    2.265e-05     54.62     0.09
   11  18.08     552.99    9.520e-04    2.126e-05     54.63     0.08
   11  18.10     552.57    9.585e-04    2.241e-05     54.62     0.09
   11  18.11     552.15    9.587e-04    2.387e-05     54.59     0.09
   11  18.13     551.72    9.692e-04    1.787e-05     54.60     0.07
   11  18.14     551.29    9.773e-04    1.890e-05     54.59     0.07
   11  18.15     550.87    9.899e-04    2.167e-05     54.61     0.08
   11  18.17     550.45    1.002e-03    2.200e-05     54.62     0.08
   11  18.21     549.18    1.010e-03    2.419e-05     54.55     0.09
   11  18.22     548.76    9.977e-04    2.110e-05     54.47     0.08
   11  18.24     548.33    1.012e-03    2.370e-05     54.49     0.09
   11  18.25     547.91    1.045e-03    2.795e-05     54.58     0.10
   11  18.27     547.49    1.044e-03    2.787e-05     54.54     0.10
   11  18.28     547.07    1.058e-03    2.292e-05     54.56     0.08
   11  18.29     546.65    1.052e-03    2.041e-05     54.51     0.07
   11  18.31     546.23    1.058e-03    2.383e-05     54.49     0.09
   11  18.34     545.39    1.085e-03    1.971e-05     54.52     0.07
   11  18.35     544.97    1.082e-03    2.062e-05     54.48     0.07
   11  18.36     544.55    1.091e-03    2.277e-05     54.48     0.08
   11  18.38     544.13    1.098e-03    2.099e-05     54.47     0.07
   11  18.39     543.72    1.089e-03    1.896e-05     54.40     0.07
   11  18.41     543.29    1.100e-03    2.096e-05     54.41     0.07
   11  18.42     542.88    1.103e-03    2.180e-05     54.38     0.07
   11  18.43     542.46    1.110e-03    2.340e-05     54.38     0.08
   11  18.45     542.04    1.143e-03    2.818e-05     54.45     0.09
   11  18.49     540.79    1.155e-03    2.319e-05     54.39     0.08
   11  18.53     539.55    1.170e-03    8.564e-06     54.35     0.03
   11  18.55     539.13    1.213e-03    2.566e-05     54.45     0.08
   11  18.56     538.72    1.240e-03    3.065e-05     54.50     0.09
   11  18.63     536.65    1.309e-03    2.229e-05     54.54     0.07
   11  18.65     536.24    1.314e-03    2.544e-05     54.52     0.07
   11  18.66     535.83    1.316e-03    2.183e-05     54.50     0.06
   11  18.68     535.41    1.328e-03    2.239e-05     54.50     0.06
   11  18.69     535.00    1.328e-03    2.355e-05     54.47     0.07
   11  18.71     534.59    1.343e-03    2.188e-05     54.48     0.06
   11  18.72     534.18    1.350e-03    2.766e-05     54.46     0.08
   11  18.73     533.77    1.346e-03    2.389e-05     54.42     0.07
   11  18.75     533.36    1.373e-03    2.318e-05     54.46     0.07
   11  18.78     532.54    1.395e-03    2.240e-05     54.46     0.06
   11  18.79     532.13    1.371e-03    2.534e-05     54.36     0.07
   11  18.81     531.72    1.408e-03    2.941e-05     54.43     0.08
   11  18.82     531.31    1.431e-03    2.976e-05     54.46     0.08
   11  18.84     530.90    1.438e-03    3.010e-05     54.45     0.08
   11  18.85     530.49    1.455e-03    2.436e-05     54.46     0.07
   11  18.86     530.09    1.438e-03    2.391e-05     54.38     0.06
   11  18.88     529.68    1.446e-03    2.590e-05     54.37     0.07
   11  18.89     529.27    1.474e-03    2.627e-05     54.41     0.07
   11  18.92     528.46    1.484e-03    2.818e-05     54.37     0.07
   11  18.94     528.05    1.530e-03    3.342e-05     54.46     0.09
   11  18.95     527.64    1.534e-03    2.723e-05     54.43     0.07
   11  18.97     527.24    1.537e-03    2.846e-05     54.41     0.07
   11  18.98     526.83    1.553e-03    3.208e-05     54.42     0.08
   11  19.00     526.43    1.580e-03    3.190e-05     54.45     0.08
   11  19.01     526.02    1.572e-03    2.862e-05     54.40     0.07
   11  19.03     525.62    1.565e-03    3.311e-05     54.35     0.08
   11  19.04     525.22    1.592e-03    3.320e-05     54.38     0.08
   11  19.10     523.60    1.609e-03    2.536e-05     54.29     0.06
   11  19.11     523.20    1.657e-03    3.935e-05     54.37     0.09
   11  19.13     522.80    1.658e-03    3.988e-05     54.34     0.09
   11  19.14     522.40    1.670e-03    3.248e-05     54.34     0.08
   11  19.16     521.99    1.655e-03    4.108e-05     54.27     0.10
   11  19.17     521.59    1.710e-03    2.875e-05     54.37     0.07
   11  19.19     521.19    1.682e-03    2.666e-05     54.27     0.06
   11  19.20     520.79    1.686e-03    2.239e-05     54.25     0.05
   11  19.22     520.39    1.729e-03    3.245e-05     54.31     0.07
   11  19.23     519.99    1.734e-03    3.473e-05     54.29     0.08
   11  19.25     519.59    1.740e-03    3.073e-05     54.27     0.07
   11  19.26     519.19    1.811e-03    4.021e-05     54.40     0.09
   11  19.28     518.79    1.806e-03    3.842e-05     54.35     0.08
   11  19.29     518.39    1.871e-03    4.309e-05     54.46     0.09
   11  19.31     517.99    1.800e-03    3.884e-05     54.28     0.09

 order  wl        wn         rad        sigma(rad)     Tb      sigma(Tb)    
   12  16.36     611.15    3.748e-04    9.313e-06     55.66     0.09
   12  16.38     610.68    3.839e-04    1.257e-05     55.71     0.12
   12  16.39     610.21    3.969e-04    1.120e-05     55.80     0.10
   12  16.40     609.74    4.008e-04    9.778e-06     55.80     0.09
   12  16.44     608.34    4.061e-04    1.047e-05     55.74     0.09
   12  16.45     607.87    4.141e-04    1.090e-05     55.77     0.09
   12  16.46     607.40    4.253e-04    1.596e-05     55.83     0.13
   12  16.48     606.94    4.332e-04    1.073e-05     55.87     0.09
   12  16.49     606.47    4.392e-04    9.710e-06     55.88     0.08
   12  16.53     605.07    4.285e-04    1.361e-05     55.69     0.11
   12  16.54     604.61    4.334e-04    1.546e-05     55.69     0.13
   12  16.55     604.14    4.345e-04    8.757e-06     55.67     0.07
   12  16.57     603.67    4.420e-04    9.211e-06     55.69     0.07
   12  16.60     602.28    4.534e-04    1.042e-05     55.68     0.08
   12  16.62     601.82    4.555e-04    9.985e-06     55.66     0.08
   12  16.63     601.36    4.550e-04    9.821e-06     55.63     0.08
   12  16.64     600.90    4.602e-04    9.477e-06     55.63     0.07
   12  16.65     600.43    4.543e-04    1.115e-05     55.55     0.09
   12  16.67     599.97    4.649e-04    1.088e-05     55.60     0.08
   12  16.68     599.51    4.667e-04    1.304e-05     55.58     0.10
   12  16.69     599.05    4.655e-04    1.335e-05     55.53     0.10
   12  16.71     598.59    4.789e-04    1.345e-05     55.60     0.10
   12  16.72     598.13    4.745e-04    1.690e-05     55.53     0.13
   12  16.73     597.67    4.713e-04    1.655e-05     55.48     0.13
   12  16.74     597.21    4.781e-04    1.436e-05     55.49     0.11
   12  16.76     596.75    4.847e-04    1.391e-05     55.51     0.10
   12  16.77     596.29    4.955e-04    1.350e-05     55.55     0.10
   12  16.78     595.83    4.979e-04    1.440e-05     55.53     0.10
   12  16.80     595.38    4.964e-04    1.410e-05     55.49     0.10
   12  16.81     594.92    5.001e-04    1.399e-05     55.48     0.10
   12  16.82     594.46    4.971e-04    1.230e-05     55.43     0.09
   12  16.83     594.00    5.102e-04    1.151e-05     55.49     0.08
   12  16.85     593.55    5.277e-04    1.179e-05     55.57     0.08
   12  16.86     593.09    5.195e-04    1.291e-05     55.48     0.09
   12  16.87     592.64    5.139e-04    1.294e-05     55.41     0.09
   12  16.89     592.18    5.174e-04    1.203e-05     55.40     0.08
   12  16.90     591.72    5.206e-04    1.288e-05     55.39     0.09
   12  16.91     591.27    5.277e-04    1.212e-05     55.40     0.08
   12  16.93     590.81    5.353e-04    1.310e-05     55.42     0.09
   12  16.94     590.36    5.402e-04    1.532e-05     55.42     0.10
   12  16.95     589.90    5.499e-04    1.462e-05     55.45     0.10
   12  16.96     589.45    5.519e-04    1.206e-05     55.43     0.08
   12  16.98     589.00    5.460e-04    1.325e-05     55.35     0.09
   12  16.99     588.54    5.504e-04    1.493e-05     55.35     0.10
   12  17.00     588.09    6.012e-04    1.497e-05     55.63     0.09
   12  17.02     587.64    8.378e-04    2.901e-05     56.84     0.13
   12  17.03     587.19    2.273e-03    5.679e-05     60.89     0.11
   12  17.04     586.74    2.415e-03    1.020e-04     61.12     0.19
   12  17.06     586.29    1.022e-03    8.117e-05     57.50     0.31
   12  17.07     585.83    6.032e-04    1.118e-05     55.48     0.07
   12  17.08     585.38    5.911e-04    1.437e-05     55.37     0.09
   12  17.10     584.94    6.122e-04    1.345e-05     55.46     0.08
   12  17.11     584.48    6.350e-04    1.478e-05     55.56     0.09
   12  17.12     584.03    6.357e-04    1.353e-05     55.53     0.08
   12  17.14     583.59    6.319e-04    1.375e-05     55.47     0.08
   12  17.15     583.14    6.260e-04    1.337e-05     55.41     0.08
   12  17.19     581.79    6.239e-04    1.412e-05     55.29     0.08
   12  17.20     581.34    6.364e-04    1.202e-05     55.33     0.07
   12  17.21     580.90    6.417e-04    1.127e-05     55.33     0.06
   12  17.23     580.45    6.410e-04    1.185e-05     55.29     0.07
   12  17.24     580.01    6.425e-04    1.301e-05     55.26     0.07
   12  17.28     578.67    6.492e-04    1.211e-05     55.20     0.07
   12  17.29     578.22    6.547e-04    1.309e-05     55.19     0.07
   12  17.31     577.78    6.553e-04    1.292e-05     55.16     0.07
   12  17.32     577.33    6.490e-04    1.214e-05     55.09     0.07
   12  17.33     576.89    6.539e-04    1.319e-05     55.09     0.07
   12  17.35     576.45    6.761e-04    1.523e-05     55.18     0.08
   12  17.36     576.00    6.830e-04    1.422e-05     55.18     0.08
   12  17.37     575.56    6.770e-04    1.323e-05     55.11     0.07
   12  17.39     575.12    6.760e-04    1.181e-05     55.07     0.06
   12  17.40     574.68    6.830e-04    1.354e-05     55.08     0.07
   12  17.41     574.23    6.872e-04    1.334e-05     55.07     0.07
   12  17.43     573.79    6.924e-04    1.391e-05     55.06     0.07
   12  17.44     573.35    7.059e-04    1.306e-05     55.10     0.07
   12  17.45     572.91    7.103e-04    1.667e-05     55.09     0.09
   12  17.47     572.47    7.031e-04    1.698e-05     55.02     0.09
   12  17.48     572.03    7.087e-04    1.411e-05     55.01     0.07
   12  17.50     571.59    7.160e-04    1.331e-05     55.01     0.07
   12  17.51     571.15    7.265e-04    1.689e-05     55.03     0.09
   12  17.52     570.71    7.425e-04    1.648e-05     55.08     0.08
   12  17.54     570.27    7.417e-04    1.555e-05     55.04     0.08
   12  17.58     568.96    7.273e-04    1.462e-05     54.87     0.07
   12  17.59     568.52    7.243e-04    1.221e-05     54.82     0.06
   12  17.60     568.09    7.753e-04    1.798e-05     55.04     0.09
   12  17.62     567.65    7.439e-04    1.240e-05     54.85     0.06
   12  17.63     567.21    7.522e-04    1.509e-05     54.86     0.07
   12  17.64     566.78    7.593e-04    1.583e-05     54.86     0.08
   12  17.66     566.34    7.472e-04    1.750e-05     54.77     0.09
   12  17.67     565.90    7.659e-04    1.742e-05     54.82     0.08
   12  17.68     565.47    7.788e-04    1.415e-05     54.85     0.07
   12  17.70     565.03    7.801e-04    1.415e-05     54.82     0.07
   12  17.71     564.60    7.705e-04    1.691e-05     54.75     0.08
   12  17.73     564.16    7.791e-04    1.651e-05     54.75     0.08
   12  17.74     563.73    7.922e-04    1.665e-05     54.78     0.08
   12  17.75     563.30    7.980e-04    1.434e-05     54.77     0.07
   12  17.77     562.86    7.959e-04    1.603e-05     54.73     0.07
   12  17.78     562.43    8.148e-04    2.006e-05     54.78     0.09
   12  17.79     562.00    8.028e-04    1.508e-05     54.70     0.07
   12  17.81     561.57    8.004e-04    1.934e-05     54.65     0.09
   12  17.82     561.14    8.249e-04    2.253e-05     54.73     0.10
   12  17.83     560.71    8.099e-04    2.067e-05     54.63     0.09

 order  wl        wn         rad        sigma(rad)     Tb      sigma(Tb)    
   13  15.19     658.50    1.397e-04    5.827e-06     55.71     0.14
   13  15.20     657.99    1.428e-04    5.908e-06     55.74     0.14
   13  15.21     657.48    1.486e-04    7.129e-06     55.84     0.16
   13  15.22     656.98    1.423e-04    4.812e-06     55.66     0.11
   13  15.23     656.47    1.484e-04    5.335e-06     55.76     0.12
   13  15.24     655.97    1.526e-04    5.583e-06     55.82     0.12
   13  15.26     655.47    1.582e-04    6.465e-06     55.90     0.14
   13  15.27     654.96    1.545e-04    4.372e-06     55.79     0.09
   13  15.30     653.45    1.604e-04    4.168e-06     55.81     0.09
   13  15.32     652.95    1.640e-04    4.717e-06     55.85     0.10
   13  15.33     652.45    1.600e-04    5.328e-06     55.73     0.11
   13  15.34     651.95    1.611e-04    5.020e-06     55.72     0.10
   13  15.36     650.94    1.673e-04    4.776e-06     55.77     0.09
   13  15.37     650.44    1.712e-04    5.725e-06     55.81     0.11
   13  15.39     649.94    1.687e-04    4.961e-06     55.73     0.10
   13  15.40     649.44    1.693e-04    4.989e-06     55.71     0.10
   13  15.41     648.94    1.723e-04    5.007e-06     55.73     0.10
   13  15.42     648.45    1.757e-04    4.846e-06     55.76     0.09
   13  15.43     647.95    1.740e-04    5.494e-06     55.69     0.11
   13  15.45     647.45    1.790e-04    6.425e-06     55.75     0.12
   13  15.46     646.95    1.828e-04    5.538e-06     55.79     0.10
   13  15.47     646.45    1.831e-04    4.658e-06     55.76     0.09
   13  15.48     645.95    1.851e-04    4.995e-06     55.76     0.09
   13  15.49     645.46    1.861e-04    5.235e-06     55.74     0.09
   13  15.50     644.96    1.908e-04    5.049e-06     55.79     0.09
   13  15.52     644.47    1.972e-04    5.549e-06     55.86     0.09
   13  15.53     643.97    1.962e-04    5.992e-06     55.81     0.10
   13  15.55     642.98    2.027e-04    4.055e-06     55.85     0.07
   13  15.56     642.49    2.046e-04    4.346e-06     55.85     0.07
   13  15.58     641.99    2.090e-04    5.981e-06     55.88     0.10
   13  15.59     641.50    2.069e-04    6.945e-06     55.82     0.11
   13  15.60     641.01    2.104e-04    6.722e-06     55.84     0.11
   13  15.61     640.51    2.177e-04    6.223e-06     55.92     0.10
   13  15.62     640.02    2.363e-04    5.582e-06     56.16     0.08
   13  15.64     639.53    2.294e-04    6.257e-06     56.03     0.09
   13  15.65     639.03    2.262e-04    7.231e-06     55.94     0.11
   13  15.66     638.54    2.258e-04    7.164e-06     55.90     0.11
   13  15.67     638.05    2.248e-04    6.531e-06     55.85     0.10
   13  15.68     637.56    2.265e-04    6.662e-06     55.84     0.10
   13  15.70     637.07    2.310e-04    8.207e-06     55.87     0.12
   13  15.71     636.58    2.395e-04    8.328e-06     55.96     0.12
   13  15.72     636.09    2.461e-04    8.493e-06     56.02     0.12
   13  15.73     635.60    2.563e-04    9.395e-06     56.12     0.13
   13  15.75     635.11    2.744e-04    1.220e-05     56.32     0.15
   13  15.76     634.63    3.038e-04    9.054e-06     56.64     0.10
   13  15.77     634.14    3.293e-04    8.037e-06     56.89     0.09
   13  15.81     632.68    3.600e-04    1.153e-05     57.10     0.11
   13  15.82     632.19    3.299e-04    8.453e-06     56.76     0.09
   13  15.83     631.70    3.247e-04    7.637e-06     56.67     0.08
   13  15.84     631.22    3.230e-04    8.327e-06     56.61     0.09
   13  15.85     630.73    3.097e-04    8.181e-06     56.43     0.09
   13  15.87     630.25    2.960e-04    8.252e-06     56.23     0.10
   13  15.88     629.76    2.947e-04    7.797e-06     56.18     0.09
   13  15.89     629.28    2.969e-04    6.571e-06     56.18     0.08
   13  15.90     628.80    3.157e-04    8.730e-06     56.35     0.10
   13  15.92     628.31    4.204e-04    1.232e-05     57.34     0.11
   13  15.93     627.83    4.998e-04    1.919e-05     57.94     0.14
   13  15.94     627.34    3.777e-04    1.284e-05     56.88     0.12
   13  15.95     626.86    3.042e-04    8.513e-06     56.08     0.10
   13  15.96     626.38    2.988e-04    7.078e-06     55.99     0.08
   13  15.98     625.90    2.993e-04    7.153e-06     55.96     0.08
   13  15.99     625.42    3.096e-04    8.103e-06     56.04     0.09
   13  16.00     624.94    3.149e-04    8.513e-06     56.06     0.09
   13  16.01     624.46    3.263e-04    9.349e-06     56.15     0.10
   13  16.03     623.98    3.160e-04    8.491e-06     56.01     0.09
   13  16.04     623.50    3.171e-04    8.980e-06     55.98     0.10
   13  16.05     623.02    3.168e-04    9.004e-06     55.94     0.10
   13  16.06     622.54    3.257e-04    8.995e-06     56.01     0.10
   13  16.08     622.06    3.346e-04    7.189e-06     56.07     0.08
   13  16.09     621.58    3.310e-04    8.890e-06     55.99     0.09
   13  16.13     620.15    3.363e-04    8.957e-06     55.94     0.09
   13  16.14     619.67    3.304e-04    8.439e-06     55.85     0.09
   13  16.15     619.20    3.236e-04    7.840e-06     55.74     0.08
   13  16.16     618.72    3.408e-04    1.154e-05     55.89     0.12
   13  16.17     618.25    3.472e-04    7.685e-06     55.92     0.08
   13  16.19     617.77    3.421e-04    7.614e-06     55.83     0.08
   13  16.20     617.29    3.506e-04    7.223e-06     55.88     0.07
   13  16.21     616.82    3.512e-04    8.204e-06     55.85     0.08
   13  16.22     616.34    3.585e-04    8.500e-06     55.89     0.08
   13  16.24     615.87    3.494e-04    8.146e-06     55.76     0.08
   13  16.25     615.40    3.387e-04    1.260e-05     55.62     0.13
   13  16.26     614.92    3.561e-04    8.533e-06     55.76     0.08
   13  16.27     614.45    3.592e-04    7.943e-06     55.76     0.08
   13  16.30     613.51    3.490e-04    1.042e-05     55.59     0.10
   13  16.31     613.03    3.564e-04    1.139e-05     55.63     0.11
   13  16.32     612.57    3.615e-04    9.028e-06     55.64     0.09
   13  16.34     612.09    3.840e-04    1.782e-05     55.82     0.16
   13  16.35     611.62    4.153e-04    8.221e-06     56.06     0.07
   13  16.36     611.15    4.018e-04    1.390e-05     55.91     0.12
   13  16.38     610.68    3.633e-04    1.062e-05     55.52     0.10
   13  16.39     610.21    3.610e-04    9.809e-06     55.46     0.10
   13  16.40     609.74    3.563e-04    1.091e-05     55.38     0.11
   13  16.41     609.27    3.572e-04    9.118e-06     55.36     0.09
   13  16.43     608.81    3.616e-04    8.176e-06     55.37     0.08

 order  wl        wn         rad        sigma(rad)     Tb      sigma(Tb)    
   14  14.24     702.45    7.361e-04    1.175e-04     65.04     0.67
   14  14.25     701.91    1.773e-04    1.013e-05     59.54     0.20
   14  14.26     701.37    7.357e-04    6.438e-05     64.96     0.37
   14  14.27     700.83    1.385e-03    1.227e-04     67.67     0.40
   14  14.28     700.29    7.964e-04    9.347e-05     65.21     0.50
   14  14.29     699.76    2.081e-04    1.932e-05     59.96     0.33
   14  14.30     699.22    5.654e-04    4.874e-05     63.71     0.35
   14  14.31     698.68    1.630e-03    1.415e-04     68.25     0.40
   14  14.32     698.14    1.485e-03    1.602e-04     67.78     0.50
   14  14.33     697.60    3.106e-04    3.951e-05     61.27     0.48
   14  14.37     696.00    1.036e-03    1.174e-04     66.01     0.49
   14  14.38     695.46    3.503e-04    3.969e-05     61.57     0.43
   14  14.39     694.93    1.703e-04    1.493e-05     58.92     0.30
   14  14.40     694.39    6.000e-04    9.757e-05     63.60     0.66
   14  14.41     693.86    1.591e-03    1.841e-04     67.76     0.53
   14  14.42     693.33    7.840e-04    7.727e-05     64.62     0.41
   14  14.43     692.79    1.375e-04    1.040e-05     58.03     0.26
   14  14.45     692.26    1.936e-04    3.145e-05     59.18     0.58
   14  14.46     691.73    6.293e-04    6.001e-05     63.59     0.39
   14  14.47     691.20    6.002e-04    5.229e-05     63.36     0.35
   14  14.52     688.54    4.270e-04    5.194e-05     61.82     0.47
   14  14.53     688.01    1.111e-04    8.706e-06     57.00     0.26
   14  14.58     685.90    1.150e-04    7.464e-06     56.96     0.21
   14  14.61     684.32    5.892e-04    6.364e-05     62.78     0.43
   14  14.65     682.74    1.220e-04    6.615e-06     56.94     0.18
   14  14.66     682.22    2.295e-04    1.857e-05     59.07     0.29
   14  14.67     681.69    1.877e-04    1.237e-05     58.33     0.23
   14  14.68     681.17    1.312e-04    4.854e-06     57.07     0.12
   14  14.70     680.12    2.635e-04    1.918e-05     59.41     0.26
   14  14.71     679.60    3.041e-04    2.549e-05     59.90     0.31
   14  14.73     679.08    1.683e-04    1.496e-05     57.77     0.30
   14  14.74     678.55    1.197e-04    2.712e-06     56.59     0.07
   14  14.75     678.03    1.376e-04    4.378e-06     57.01     0.11
   14  14.76     677.51    1.640e-04    8.000e-06     57.57     0.17
   14  14.77     676.99    1.379e-04    5.644e-06     56.95     0.14
   14  14.78     676.47    1.182e-04    3.327e-06     56.41     0.09
   14  14.79     675.95    1.200e-04    2.995e-06     56.42     0.08
   14  14.81     675.43    1.678e-04    8.642e-06     57.50     0.18
   14  14.82     674.91    1.907e-04    1.153e-05     57.90     0.21
   14  14.83     674.39    1.413e-04    8.081e-06     56.85     0.19
   14  14.84     673.87    1.241e-04    3.793e-06     56.38     0.10
   14  14.85     673.35    1.244e-04    4.147e-06     56.36     0.11
   14  14.86     672.83    1.354e-04    4.351e-06     56.60     0.11
   14  14.87     672.32    1.235e-04    7.408e-06     56.26     0.20
   14  14.89     671.80    1.175e-04    8.449e-06     56.06     0.23
   14  14.90     671.28    1.235e-04    5.593e-06     56.19     0.15
   14  14.91     670.77    1.342e-04    4.831e-06     56.43     0.12
   14  14.92     670.25    1.466e-04    5.101e-06     56.69     0.12
   14  14.93     669.74    1.334e-04    4.976e-06     56.34     0.12
   14  14.94     669.22    1.250e-04    4.382e-06     56.09     0.11
   14  14.95     668.71    1.352e-04    3.801e-06     56.31     0.09
   14  14.97     668.20    1.752e-04    6.495e-06     57.14     0.13
   14  14.98     667.68    2.317e-04    4.912e-06     58.07     0.07
   14  14.99     667.16    1.816e-04    6.592e-06     57.19     0.12
   14  15.00     666.65    1.332e-04    5.700e-06     56.12     0.14
   14  15.02     665.63    1.325e-04    4.029e-06     56.03     0.10
   14  15.03     665.11    1.307e-04    4.461e-06     55.95     0.11
   14  15.05     664.61    1.354e-04    5.076e-06     56.03     0.12
   14  15.06     664.09    1.377e-04    4.737e-06     56.05     0.11
   14  15.07     663.58    1.369e-04    7.611e-06     56.00     0.18
   14  15.10     662.05    1.409e-04    5.879e-06     55.98     0.14
   14  15.12     661.54    1.461e-04    4.228e-06     56.07     0.10
   14  15.13     661.03    1.509e-04    3.969e-06     56.14     0.09
   14  15.14     660.53    1.302e-04    6.776e-06     55.62     0.17
   14  15.15     660.02    1.430e-04    1.137e-05     55.89     0.26
   14  15.16     659.51    1.526e-04    7.239e-06     56.07     0.16
   14  15.17     659.01    1.472e-04    3.696e-06     55.92     0.08
   14  15.19     658.50    1.385e-04    6.641e-06     55.68     0.16
   14  15.20     657.99    1.450e-04    9.602e-06     55.79     0.22
   14  15.21     657.48    1.490e-04    6.512e-06     55.85     0.14
   14  15.22     656.98    1.511e-04    6.678e-06     55.86     0.15
   14  15.23     656.47    1.438e-04    4.117e-06     55.66     0.09
   14  15.24     655.97    1.474e-04    4.452e-06     55.71     0.10
   14  15.26     655.47    1.444e-04    4.819e-06     55.60     0.11
   14  15.27     654.96    1.484e-04    5.198e-06     55.66     0.12
   14  15.28     654.46    1.563e-04    8.324e-06     55.79     0.18

 order  wl        wn         rad        sigma(rad)     Tb      sigma(Tb)    
   15  13.15     760.37    2.845e-04    3.605e-05     65.40     0.50
   15  13.16     759.79    7.005e-04    6.187e-05     69.08     0.39
   15  13.17     759.20    6.016e-04    5.848e-05     68.38     0.42
   15  13.18     758.62    1.489e-04    1.990e-05     62.84     0.49
   15  13.19     758.03    3.815e-04    6.528e-05     66.40     0.70
   15  13.20     757.45    1.215e-03    9.311e-05     71.40     0.36
   15  13.21     756.87    9.268e-04    7.915e-05     70.11     0.39
   15  13.22     756.29    2.008e-04    1.508e-05     63.78     0.28
   15  13.23     755.71    3.376e-04    3.100e-05     65.74     0.37
   15  13.24     755.13    1.046e-03    8.548e-05     70.52     0.37
   15  13.26     753.97    2.540e-04    3.410e-05     64.51     0.52
   15  13.27     753.39    5.132e-04    3.154e-05     67.28     0.26
   15  13.28     752.81    1.741e-03    1.171e-04     72.76     0.33
   15  13.29     752.22    1.293e-03    8.813e-05     71.29     0.32
   15  13.30     751.65    4.134e-04    4.537e-05     66.27     0.45
   15  13.31     751.07    4.958e-04    3.529e-05     66.97     0.30
   15  13.32     750.49    1.330e-03    1.404e-04     71.29     0.50
   15  13.33     749.92    1.084e-03    1.074e-04     70.30     0.46
   15  13.35     749.34    4.085e-04    3.110e-05     66.05     0.31
   15  13.36     748.76    6.473e-04    3.587e-05     67.93     0.24
   15  13.37     748.19    1.652e-03    1.354e-04     72.15     0.40
   15  13.38     747.61    1.555e-03    1.537e-04     71.81     0.47
   15  13.39     747.04    4.432e-04    4.661e-05     66.22     0.43
   15  13.40     746.46    4.843e-04    3.384e-05     66.54     0.29
   15  13.43     744.74    3.651e-04    4.546e-05     65.27     0.50
   15  13.44     744.17    5.258e-04    4.193e-05     66.71     0.33
   15  13.45     743.60    1.364e-03    7.954e-05     70.88     0.27
   15  13.46     743.03    1.790e-03    1.433e-04     72.14     0.39
   15  13.47     742.45    4.768e-04    4.151e-05     66.19     0.36
   15  13.48     741.88    4.306e-04    3.245e-05     65.73     0.31
   15  13.49     741.31    9.441e-04    5.867e-05     69.02     0.28
   15  13.50     740.74    1.513e-03    1.096e-04     71.15     0.34
   15  13.51     740.17    5.064e-04    3.687e-05     66.27     0.30
   15  13.52     739.60    4.875e-04    4.066e-05     66.07     0.34
   15  13.53     739.03    1.311e-03    7.525e-05     70.35     0.27
   15  13.54     738.47    2.493e-03    1.220e-04     73.43     0.25
   15  13.55     737.90    8.640e-04    7.158e-05     68.38     0.37
   15  13.56     737.33    4.923e-04    3.299e-05     65.94     0.28
   15  13.57     736.76    9.796e-04    6.158e-05     68.85     0.28
   15  13.58     736.20    1.974e-03    1.532e-04     72.09     0.38
   15  13.59     735.63    9.675e-04    7.126e-05     68.71     0.33
   15  13.60     735.07    4.980e-04    3.911e-05     65.83     0.32
   15  13.61     734.50    8.958e-04    5.799e-05     68.28     0.29
   15  13.63     733.93    2.248e-03    1.802e-04     72.55     0.40
   15  13.64     733.37    1.072e-03    9.189e-05     69.00     0.39
   15  13.65     732.81    4.546e-04    3.184e-05     65.29     0.28
   15  13.74     727.75    1.063e-03    1.974e-04     68.53     0.84
   15  13.75     727.19    2.017e-04    1.694e-05     61.77     0.31
   15  13.76     726.63    1.204e-04    5.981e-06     59.91     0.17
   15  13.77     726.07    1.197e-04    6.744e-06     59.85     0.19
   15  13.78     725.52    1.450e-04    8.046e-06     60.48     0.19
   15  13.79     724.96    5.570e-04    3.948e-05     65.55     0.29
   15  13.80     724.40    9.394e-04    8.511e-05     67.73     0.40
   [Break for saturated feature]
   15  13.89     719.96    1.544e-03    1.342e-04     69.65     0.41
   15  13.90     719.40    1.181e-03    1.074e-04     68.37     0.41
   15  13.91     718.85    4.169e-04    4.022e-05     63.93     0.38
   15  13.92     718.30    3.882e-04    2.430e-05     63.61     0.25
   15  13.93     717.75    1.907e-03    1.175e-04     70.48     0.30
   15  13.94     717.20    1.957e-03    9.470e-05     70.56     0.23
   15  13.95     716.64    7.509e-04    1.078e-04     66.18     0.61
   15  13.96     716.09    3.132e-04    2.059e-05     62.63     0.25
   15  13.98     715.54    8.946e-04    6.508e-05     66.85     0.32
   15  13.99     714.99    1.592e-03    1.493e-04     69.41     0.44
   15  14.00     714.44    7.462e-04    7.816e-05     65.99     0.45
   15  14.01     713.89    2.895e-04    1.811e-05     62.17     0.24
   15  14.02     713.34    6.852e-04    3.749e-05     65.55     0.23
   15  14.03     712.79    2.250e-03    1.394e-04     70.89     0.30
   15  14.04     712.25    1.305e-03    9.400e-05     68.28     0.33
   15  14.05     711.70    3.384e-04    3.875e-05     62.61     0.44
   15  14.06     711.15    3.068e-04    2.444e-05     62.19     0.30
   15  14.09     709.51    4.155e-04    3.864e-05     63.24     0.37
   15  14.11     708.96    2.975e-04    3.037e-05     61.92     0.38
   15  14.12     708.42    1.207e-03    7.983e-05     67.63     0.30
   15  14.13     707.87    2.454e-03    1.748e-04     70.93     0.35
   15  14.14     707.33    8.673e-04    6.640e-05     66.10     0.33
   15  14.15     706.79    2.234e-04    1.490e-05     60.71     0.24
   15  14.16     706.24    5.795e-04    7.646e-05     64.33     0.54
   15  14.17     705.70    1.646e-03    1.580e-04     68.84     0.45

 order  wl        wn         rad        sigma(rad)     Tb      sigma(Tb)    
   16  12.81     780.52    1.328e-04    1.793e-05     63.92     0.49
   16  12.82     779.92    4.323e-05    7.455e-06     60.05     0.56
   16  12.83     779.32    4.018e-05    6.000e-06     59.77     0.48
   16  12.84     778.72    8.667e-05    8.950e-06     62.29     0.36
   16  12.85     778.12    9.650e-05    9.673e-06     62.62     0.35
   16  12.86     777.53    4.387e-05    8.889e-06     59.94     0.66
   16  12.87     776.93    9.870e-05    1.348e-05     62.62     0.48
   16  12.88     776.33    2.821e-04    3.437e-05     66.49     0.48
   16  12.89     775.73    2.509e-04    2.826e-05     65.99     0.44
   16  12.90     775.13    7.308e-05    6.706e-06     61.46     0.31
   16  12.91     774.54    9.435e-05    8.309e-06     62.30     0.31
   16  12.92     773.95    2.145e-04    2.741e-05     65.26     0.49
   16  12.93     773.35    1.532e-04    1.862e-05     63.96     0.45
   16  12.94     772.76    6.220e-05    9.824e-06     60.77     0.53
   16  12.95     772.16    2.235e-04    3.108e-05     65.29     0.54
   16  12.96     771.56    6.088e-04    8.286e-05     69.33     0.59
   16  12.97     770.97    4.020e-04    4.718e-05     67.54     0.48
   16  12.98     770.38    9.333e-05    7.847e-06     61.99     0.29
   16  12.99     769.79    1.796e-04    2.087e-05     64.30     0.44
   16  13.00     769.20    4.333e-04    5.749e-05     67.72     0.55
   16  13.01     768.60    2.745e-04    3.025e-05     65.84     0.43
   16  13.02     768.01    1.107e-04    9.323e-06     62.42     0.30
   16  13.03     767.42    3.774e-04    5.143e-05     67.03     0.56
   16  13.04     766.83    9.996e-04    1.343e-04     71.20     0.62
   16  13.05     766.24    5.624e-04    6.260e-05     68.61     0.48
   16  13.06     765.66    1.284e-04    1.603e-05     62.79     0.45
   16  13.07     765.06    3.061e-04    3.744e-05     66.02     0.49
   16  13.08     764.48    7.082e-04    9.226e-05     69.47     0.57
   16  13.09     763.89    4.277e-04    4.309e-05     67.29     0.42
   16  13.10     763.30    1.593e-04    1.370e-05     63.41     0.32
   16  13.11     762.71    5.209e-04    1.014e-04     68.02     0.83
   16  13.12     762.12    1.200e-03    2.900e-04     71.69     1.15
   16  13.13     761.54    7.815e-04    6.460e-05     69.69     0.37
   16  13.14     760.95    1.810e-04    1.485e-05     63.72     0.30
   16  13.15     760.37    4.603e-04    4.453e-05     67.34     0.40
   16  13.18     758.62    2.260e-04    1.583e-05     64.39     0.27
   16  13.19     758.03    7.047e-04    6.203e-05     68.98     0.38
   16  13.20     757.45    1.475e-03    1.049e-04     72.31     0.34
   16  13.21     756.87    9.550e-04    9.146e-05     70.24     0.44
   16  13.22     756.29    2.665e-04    2.046e-05     64.86     0.30
   16  13.23     755.71    5.855e-04    4.496e-05     68.01     0.33
   16  13.24     755.13    1.188e-03    9.977e-05     71.11     0.39

 order  wl        wn         rad        sigma(rad)     Tb      sigma(Tb)    
   17  11.87     842.28    4.980e-05    3.296e-06     64.54     0.23
   17  11.88     841.64    5.934e-05    3.168e-06     65.10     0.19
   17  11.89     840.99    6.906e-05    5.326e-06     65.60     0.27
   17  11.90     840.34    6.776e-05    3.482e-06     65.49     0.18
   17  11.91     839.69    6.118e-05    3.807e-06     65.09     0.22
   17  11.94     837.76    7.658e-05    4.742e-06     65.75     0.22
   17  11.95     837.11    6.019e-05    3.419e-06     64.86     0.20
   17  11.96     836.47    6.368e-05    3.882e-06     65.02     0.21
   17  11.96     835.83    9.698e-05    1.258e-05     66.49     0.48
   17  11.97     835.18    9.317e-05    7.057e-06     66.30     0.28
   17  11.98     834.54    4.646e-05    4.647e-06     63.80     0.34
   17  11.99     833.90    5.732e-05    4.521e-06     64.48     0.27
   17  12.00     833.26    9.770e-05    1.033e-05     66.34     0.39
   17  12.01     832.62    1.129e-04    9.009e-06     66.83     0.30
   17  12.02     831.98    6.358e-05    8.381e-06     64.72     0.46
   17  12.03     831.34    6.008e-05    4.491e-06     64.48     0.26
   17  12.04     830.70    1.070e-04    8.802e-06     66.51     0.30
   17  12.05     830.06    1.425e-04    9.889e-06     67.54     0.27
   17  12.06     829.42    6.938e-05    1.147e-05     64.86     0.59
   17  12.07     828.78    5.218e-05    4.853e-06     63.83     0.32
   17  12.08     828.15    9.041e-05    1.012e-05     65.72     0.41
   17  12.08     827.51    1.500e-04    1.028e-05     67.56     0.26
   17  12.09     826.88    7.725e-05    1.460e-05     65.07     0.68
   17  12.10     826.24    4.339e-05    9.408e-06     63.04     0.73
   17  12.11     825.60    7.252e-05    1.263e-05     64.76     0.62
   17  12.12     824.97    1.559e-04    9.916e-06     67.54     0.24
   17  12.13     824.33    1.138e-04    1.149e-05     66.31     0.38
   17  12.14     823.70    6.977e-05    5.154e-06     64.50     0.26
   17  12.15     823.07    1.022e-04    7.190e-06     65.83     0.26
   17  12.18     821.17    6.004e-05    4.152e-06     63.81     0.24
   17  12.19     820.54    6.097e-05    3.926e-06     63.83     0.22
   17  12.20     819.91    1.302e-04    8.378e-06     66.51     0.24
   17  12.21     819.28    1.207e-04    9.362e-06     66.19     0.29
   17  12.22     818.65    7.023e-05    6.320e-06     64.19     0.32
   17  12.22     818.02    5.699e-05    4.252e-06     63.43     0.26
   17  12.23     817.39    1.186e-04    6.503e-06     66.00     0.20
   17  12.24     816.76    1.246e-04    8.981e-06     66.14     0.27
   17  12.25     816.13    8.046e-05    8.936e-06     64.51     0.39
   17  12.26     815.50    8.258e-05    3.979e-06     64.56     0.17
   17  12.27     814.88    2.765e-04    8.566e-06     69.11     0.13
   17  12.28     814.25    3.361e-04    1.029e-05     69.87     0.13
   17  12.29     813.62    1.347e-04    1.985e-05     66.22     0.56
   17  12.34     810.50    6.976e-05    3.986e-06     63.64     0.20
   17  12.35     809.88    7.039e-05    4.258e-06     63.63     0.21
   17  12.36     809.26    1.027e-04    7.502e-06     64.92     0.26
   17  12.37     808.63    8.052e-05    7.433e-06     64.01     0.33
   17  12.38     808.01    6.829e-05    4.034e-06     63.40     0.20
   17  12.39     807.39    7.176e-05    3.960e-06     63.53     0.19
   17  12.40     806.77    8.892e-05    5.335e-06     64.24     0.21
   17  12.40     806.15    7.578e-05    4.203e-06     63.64     0.19
   17  12.41     805.53    6.092e-05    7.578e-06     62.84     0.43
   17  12.42     804.91    7.100e-05    8.131e-06     63.33     0.40
   17  12.43     804.29    7.162e-05    4.708e-06     63.32     0.23
   17  12.44     803.67    7.918e-05    7.671e-06     63.63     0.34
   17  12.45     803.05    6.158e-05    8.160e-06     62.72     0.45
